log(E/eV)	eSyn	muSy	piSy	eIC	piPP	piPG	totAbs
-2	40.4806	30.1463	28.1111	34.8831	-100	-100	40.4806
-1.79798	40.5762	30.3722	28.3385	35.2202	-100	-100	40.5762
-1.59596	40.6678	30.5985	28.567	35.5077	-100	-100	40.6678
-1.39394	40.7568	30.8252	28.7971	35.7408	-100	-100	40.7568
-1.19192	40.8444	31.0527	29.0286	35.9381	-100	-100	40.8444
-0.989899	40.9296	31.2811	29.2614	36.1103	-100	-100	40.9296
-0.787879	41.0099	31.5107	29.4957	36.2545	-100	-100	41.0099
-0.585859	41.0851	31.7419	29.7315	36.3801	-100	-100	41.0851
-0.383838	41.1577	31.9748	29.9686	36.5258	-100	-100	41.1578
-0.181818	41.2283	32.2093	30.207	36.6694	-100	-100	41.2283
0.020202	41.2939	32.4454	30.4467	36.8035	-100	-100	41.2939
0.222222	41.3524	32.6831	30.6877	36.9155	-100	-100	41.3524
0.424242	41.4061	32.9223	30.9298	37.0487	-100	-100	41.4061
0.626263	41.4579	33.1629	31.1731	37.1879	-100	-100	41.4579
0.828283	41.5067	33.4049	31.4174	37.3161	-100	-100	41.5067
1.0303	41.5486	33.6481	31.6626	37.4177	-100	-100	41.5486
1.23232	41.5839	33.8923	31.9086	37.5264	-100	-100	41.584
1.43434	41.616	34.1375	32.1555	37.6517	-100	-100	41.616
1.63636	41.645	34.3834	32.4031	37.7683	-100	-100	41.6451
1.83838	41.6665	34.6299	32.6512	37.8711	-100	-100	41.6666
2.0404	41.6784	34.8766	32.8999	37.9671	-100	-100	41.6785
2.24242	41.6852	35.1235	33.1491	38.085	-100	-100	41.6853
2.44444	41.6909	35.3702	33.3985	38.1912	-100	-100	41.6911
2.64646	41.6924	35.6166	33.6482	38.2888	-100	-100	41.6926
2.84848	41.6834	35.8627	33.898	38.3697	-100	-100	41.6836
3.05051	41.667	36.1085	34.1478	38.4121	-100	-100	41.6672
3.25253	41.6521	36.354	34.3975	38.515	-100	-100	41.6524
3.45455	41.6416	36.5994	34.647	38.6125	-100	-100	41.642
3.65657	41.6271	36.8445	34.8961	38.6937	-100	-100	41.6276
3.85859	41.6047	37.089	35.1446	38.7659	-100	-100	41.6053
4.06061	41.5834	37.3326	35.3924	38.8634	-100	-100	41.5842
4.26263	41.5724	37.5753	35.6395	38.948	-100	-100	41.5735
4.46465	41.5682	37.8167	35.8856	39.0283	-100	-100	41.5695
4.66667	41.5619	38.0565	36.1307	39.0852	-100	-100	41.5635
4.86869	41.5559	38.2945	36.3747	39.169	-100	-100	41.5579
5.07071	41.5568	38.5306	36.6175	39.2488	-100	-100	41.5593
5.27273	41.5648	38.7644	36.8591	39.319	-100	-100	41.5679
5.47475	41.5723	38.9957	37.0994	39.3701	-100	-100	41.576
5.67677	41.5784	39.2244	37.3383	39.4336	-100	-100	41.5828
5.87879	41.5872	39.4502	37.5759	39.4995	-100	-100	41.5927
6.08081	41.6	39.6729	37.812	39.5581	-100	-100	41.6069
6.28283	41.6119	39.8926	38.0467	39.605	-100	-100	41.6208
6.48485	41.6209	40.1089	38.2797	39.6527	-100	-100	41.6331
6.68687	41.631	40.3212	38.5107	39.7045	-100	-100	41.6483
6.88889	41.6449	40.5286	38.7395	39.7486	-100	-100	41.6696
7.09091	41.6596	40.7306	38.9656	39.7856	24.4344	-100	41.695
7.29293	41.6718	40.9261	39.1882	39.809	24.9882	14.5937	41.7224
7.49495	41.6846	41.1135	39.4066	39.8368	25.5288	15.9931	41.755
7.69697	41.702	41.2919	39.6198	39.8522	25.9768	16.9383	41.7952
7.89899	41.7229	41.4597	39.8265	39.8644	26.3808	17.7278	41.8397
8.10101	41.7424	41.6144	40.0252	39.7663	26.7849	18.452	41.8809
8.30303	41.7615	41.7538	40.2145	39.7551	27.0713	19.6902	41.9158
8.50505	41.7849	41.8763	40.3925	39.7332	27.3316	21.4402	41.939
8.70707	41.8136	41.9793	40.5569	39.6977	27.5789	22.6172	41.9419
8.90909	41.8428	42.0589	40.7056	39.6472	27.8166	23.5474	41.9121
9.11111	41.8703	42.1126	40.8357	39.5828	28.048	24.2859	41.8416
9.31313	41.899	42.1385	40.9423	39.5276	28.2762	24.9014	41.7318
9.51515	41.9311	42.1314	41.0195	39.4496	28.5034	25.4407	41.5907
9.71717	41.9629	42.083	41.0606	39.3889	28.731	25.9295	41.4274
9.91919	41.9908	41.9879	41.0552	39.3195	28.9602	26.3841	41.2523
10.1212	42.0172	41.8404	40.9829	39.275	29.192	26.8177	41.0763
10.3232	42.0457	41.6222	40.8158	39.2387	29.4274	27.2368	40.9085
10.5253	42.0752	41.2982	40.5274	39.202	29.6674	27.6466	40.7569
10.7273	42.1013	40.8289	40.1005	39.1453	29.9129	28.0526	40.6217
10.9293	42.1243	40.1975	39.4849	39.1156	30.165	28.4563	40.4933
11.1313	42.1484	39.4109	38.5004	39.0584	30.4245	28.8657	40.3485
11.3333	42.1742	38.2871	36.8494	38.9967	30.6916	29.2779	40.1895
11.5354	42.1962	36.4549	34.1054	38.9232	30.9664	29.6885	40.0229
11.7374	42.2106	33.4302	29.6124	38.8714	31.2492	30.1022	39.8621
11.9394	42.2189	28.4911	22.3344	38.8199	31.5392	30.5173	39.7162
12.1414	42.222	20.503	10.6231	38.7257	31.837	30.9388	39.5901
12.3434	42.2153	7.66094	-8.1499	38.6829	32.1416	31.3713	39.4807
12.5455	42.1932	-12.9136	-38.1737	38.6273	32.4523	31.8164	39.3809
12.7475	42.1594	-45.8069	-86.1102	38.537	32.7673	32.2852	39.29
12.9495	42.1238	-98.3096	-162.541	38.4448	33.086	32.769	39.199
13.1515	42.0916	-182.002	-100	38.4115	33.4052	33.268	39.0124
13.3535	42.0571	-100	-100	38.1416	33.7211	33.7633	38.6392
13.5556	42.0213	-100	-100	38.0841	34.0345	34.2494	38.3571
13.7576	41.9927	-100	-100	38.1412	34.3415	34.7163	38.1435
13.9596	41.9747	-100	-100	37.8822	34.6443	35.1589	38.0063
14.1616	41.9576	-100	-100	37.8604	34.939	35.5837	37.9264
14.3636	41.9361	-100	-100	37.3278	35.2343	36.0102	37.8684
14.5657	41.9117	-100	-100	37.1678	35.526	36.4736	37.8423
14.7677	41.8793	-100	-100	36.5389	35.8121	36.9697	37.8392
14.9697	41.8212	-100	-100	36.3132	36.0908	37.5228	37.8467
15.1717	41.7332	-100	-100	35.613	36.3411	38.0258	37.8497
15.3737	41.6217	-100	-100	35.3305	36.5495	38.4692	37.8445
15.5758	41.4637	-100	-100	34.8718	36.7049	38.8277	37.8082
15.7778	41.237	-100	-100	35.8514	36.7628	39.0813	37.7217
15.9798	40.9639	-100	-100	35.5213	36.6341	-100	37.5819
16.1818	40.5464	-100	-100	34.6271	-100	-100	37.3099
16.3838	39.7138	-100	-100	34.2198	-100	-100	36.6408
16.5859	38.6691	-100	-100	32.6999	-100	-100	35.7564
16.7879	-100	-100	-100	-100	-100	-100	-100
16.9899	-100	-100	-100	-100	-100	-100	-100
17.1919	-100	-100	-100	-100	-100	-100	-100
17.3939	-100	-100	-100	-100	-100	-100	-100
17.596	-100	-100	-100	-100	-100	-100	-100
17.798	-100	-100	-100	-100	-100	-100	-100
18	-100	-100	-100	-100	-100	-100	-100
